# Al_CRC taken from Lumerical-Ansys database
# Reference: J. Rumble, ed., CRC Handbook of Chemistry and Physics, 103rd ed. (CRC, 2022).
# lambda Re(n) Im(n)
31017.52925   98.59502  203.70095 
24814.01098   74.99701  172.19887 
20678.33559   62.85185  150.79906 
17724.28342   53.79001  135.50006 
15508.74522   45.78413  123.73393 
13785.54939   39.65096  114.10214 
12407.00549   34.46402  105.59999 
9925.56466   24.96499   89.24999 
8271.34803   18.57199   76.95998 
7089.71337   14.27401   66.93002 
6203.49033   11.73303   59.36998 
4962.80220    8.58599   48.23504 
4135.66022    6.75899   40.96003 
3544.85668    5.43800   35.59904 
3101.75292    4.45399   31.48500 
2481.40110    3.07201   25.58099 
2067.83356    2.27300   21.40300 
1772.42834    1.77000   18.32801 
1550.87452    1.44400   15.95500 
1378.55494    1.26400   14.02101 
1240.70055    1.21200   12.46399 
1127.90836    1.20100   11.18098 
1033.91678    1.26000   10.01000 
 954.38533    1.46800    8.94900 
 886.21544    2.23700    8.21200 
 827.13480    2.74500    8.30900 
 775.43920    2.62500    8.59700 
 729.82540    2.14300    8.57300 
 689.27594    1.74100    8.20500 
 652.99864    1.48800    7.82100 
 620.34903    1.30400    7.47900 
 563.95418    1.01800    6.84600 
 516.95839    0.82600    6.28300 
 477.19267    0.69500    5.80000 
 443.10772    0.59800    5.38500 
 413.56602    0.52300    5.02400 
 387.71839    0.46000    4.70800 
 364.91163    0.40700    4.42600 
 344.63893    0.36300    4.17400 
 326.50018    0.32600    3.94599 
 310.17529    0.29400    3.74000 
 295.40444    0.26700    3.55200 
 281.97709    0.24400    3.38001 
 269.71732    0.22300    3.22201 
 258.47919    0.20500    3.07600 
 248.14011    0.19000    2.94200 
 206.78336    0.13000    2.39100 
 190.87677    0.11000    2.17300 
 177.24283    0.09500    1.98300 
 165.42674    0.08200    1.81400 
 155.08745    0.07200    1.66300 
 145.96474    0.06300    1.52700 
 137.85549    0.05600    1.40200 
 130.60000    0.04900    1.28600 
 124.07005    0.04400    1.17800 
 118.16234    0.04000    1.07600 
 112.79084    0.03600    0.97900 
 107.88740    0.03300    0.88300 
 103.39168    0.03300    0.79100 
  99.25565    0.03400    0.70000 
  95.43853    0.03800    0.60900 
  91.90346    0.04100    0.51700 
  88.62154    0.04800    0.41700 
  87.37312    0.05300    0.37300 
  86.15997    0.05800    0.32700 
  84.97947    0.06700    0.27300 
  83.83088    0.08600    0.21100 
  82.71348    0.12500    0.15300 
  81.62494    0.17800    0.10800 
  80.56467    0.23400    0.18400 
  79.53211    0.28000    0.07300 
  78.52518    0.31800    0.06500 
  77.54392    0.35100    0.06000 
  76.58640    0.38000    0.05500 
  75.65225    0.40700    0.05000 
  74.07171    0.44800    0.04500 
  72.98254    0.47400    0.04200 
  71.92452    0.49800    0.04000 
  70.89713    0.52000    0.03800 
  69.89869    0.54000    0.03600 
  68.92759    0.55800    0.03500 
  67.06489    0.59100    0.03200 
  65.29986    0.62000    0.03000 
  63.62569    0.64600    0.02800 
  62.03490    0.66800    0.02700 
  60.52202    0.68900    0.02500 
  59.08089    0.70700    0.02400 
  57.70706    0.72400    0.02300 
  56.39542    0.73900    0.02200 
  55.14232    0.75300    0.02100 
  53.94346    0.76600    0.02100 
  52.79585    0.77800    0.02000 
  51.69584    0.78900    0.01900 
  50.64073    0.79900    0.01800 
  49.62802    0.80900    0.01800 
  48.65484    0.81700    0.01700 
  47.71927    0.82600    0.01600 
  45.95190    0.84000    0.01500 
  44.31077    0.85400    0.01400 
  42.78282    0.86500    0.01400 
  41.35660    0.87600    0.01300 
  35.44857    0.91500    0.01000 
  31.01753    0.94000    0.00800 
  27.57110    0.95700    0.00700 
  24.81401    0.96900    0.00600 
  22.55817    0.97900    0.00500 
  20.67834    0.98700    0.00400 
  19.08768    0.99500    0.00400 
  17.72428    1.00600    0.00400 
  17.11309    1.02500    0.00400 
  16.54267    1.01100    0.02400 
  16.00903    1.00800    0.02500 
  15.50875    1.00700    0.02400 
  14.59647    1.00700    0.02800 
  13.78555    1.00500    0.03100 
  13.06000    0.99900    0.03600 
  12.40701    0.99100    0.03000 
  11.27908    0.99400    0.02500 
  10.33917    0.99100    0.02400 
   9.54385    0.98700    0.02100 
   8.86215    0.98900    0.01600 
   8.27135    0.99000    0.01500 
   7.75439    0.98900    0.01400 
   7.29825    0.98900    0.01100 
   6.89276    0.99000    0.01000 
   6.52999    0.99000    0.00900 
   6.20349    0.99100    0.00700 
   5.63954    0.99200    0.00600 
   5.16958    0.99300    0.00500 
   4.77193    0.99300    0.00400 
   4.43108    0.99400    0.00300 
   4.13566    0.99500    0.00200 
