# Al_Palik taken from Ansys-Lumerical database
# Handbook of Optical Constants of Solids I - III by E. Palik
# lambda Re(n) Im(n)
1999.99997    2.15000   20.69999 
1907.00033    1.99000   19.80000 
1771.00043    1.77000   18.30000 
1652.99922    1.59000   17.10000 
1550.00011    1.44000   15.99999 
1500.00059    1.38000   15.40001 
1458.99980    1.33000   14.90000 
1378.00029    1.26000   13.99999 
1304.99929    1.23000   13.20000 
1239.99946    1.21000   12.50000 
1200.00192    1.21000   12.00000 
1181.00435    1.21000   11.80000 
1126.99589    1.20000   11.20000 
1078.00160    1.21000   10.60000 
1033.00366    1.26000   10.00000 
1000.00160    1.35000    9.58000 
 991.89739    1.37000    9.49000 
 953.70259    1.58000    8.95000 
 949.99769    1.49000    8.88000 
 924.99980    1.77000    8.49000 
 918.40147    1.86000    8.44000 
 900.00144    2.06000    8.30000 
 885.60142    2.24000    8.21000 
 875.00140    2.38000    8.18000 
 855.09882    2.58000    8.21000 
 849.99862    2.61000    8.22000 
 826.59990    2.74000    8.31000 
 824.99932    2.75000    8.31000 
 799.89805    2.80000    8.45000 
 774.90124    2.63000    8.60000 
 751.40117    2.41000    8.62000 
 750.00120    2.40000    8.62000 
 729.30165    2.14000    8.57000 
 708.50138    1.91000    8.39000 
 700.00112    1.83000    8.31000 
 688.80110    1.74000    8.21000 
 670.19935    1.60000    8.01000 
 652.59993    1.49000    7.82000 
 649.99973    1.47000    7.79000 
 635.80010    1.39000    7.65000 
 619.89930    1.30000    7.48000 
 604.80097    1.22000    7.31000 
 600.00096    1.20000    7.26000 
 590.40094    1.15000    7.15000 
 576.70020    1.08000    7.00000 
 563.60040    1.02000    6.85000 
 550.99925    0.96300    6.70000 
 549.99955    0.95800    6.69000 
 539.09923    0.91200    6.55000 
 527.59907    0.86700    6.42000 
 516.60083    0.82600    6.28000 
 506.09927    0.78900    6.15000 
 500.00080    0.76900    6.08000 
 495.89911    0.75500    6.03000 
 476.90082    0.69500    5.80000 
 459.20073    0.64400    5.58000 
 450.00072    0.61800    5.47000 
 442.80071    0.59800    5.38000 
 427.49929    0.55800    5.20000 
 413.29995    0.52300    5.02000 
 399.99935    0.49000    4.86000 
 387.50027    0.46000    4.71000 
 375.69945    0.43200    4.56000 
 364.70017    0.40700    4.43001 
 354.20009    0.38500    4.30000 
 349.99957    0.37500    4.24000 
 344.39959    0.36400    4.17000 
 335.09967    0.34400    4.06000 
 326.29997    0.32600    3.95000 
 317.90005    0.31000    3.84000 
 310.00002    0.29400    3.74000 
 299.99975    0.27600    3.61000 
 291.70007    0.26100    3.51000 
 275.50024    0.23300    3.30000 
 261.00013    0.20900    3.11000 
 248.00014    0.19000    2.94000 
 236.19997    0.17200    2.79000 
 225.40000    0.15500    2.64000 
 215.59995    0.14100    2.51000 
 206.60004    0.13000    2.39000 
 198.40011    0.11900    2.28000 
